Sample 3 - sdpdrr2 - Wavelength 0.79764                   
  1.500 790
  1.510 795
  1.520 918
  1.530 930
  1.540 900
  1.550 864
  1.560 999
  1.570 1018
  1.580 1024
  1.590 1069
  1.600 973
  1.610 1069
  1.620 955
  1.630 973
  1.640 992
  1.650 1037
  1.660 980
  1.670 1050
  1.680 1018
  1.690 1056
  1.700 980
  1.710 1018
  1.720 1116
  1.730 1136
  1.740 1056
  1.750 999
  1.760 1109
  1.770 1122
  1.780 1089
  1.790 1109
  1.800 1089
  1.810 1082
  1.820 1218
  1.830 1176
  1.840 1170
  1.850 1102
  1.860 1129
  1.870 1136
  1.880 1005
  1.890 1218
  1.900 1183
  1.910 1136
  1.920 1204
  1.930 1122
  1.940 1246
  1.950 1163
  1.960 1176
  1.970 1218
  1.980 1129
  1.990 1260
  2.000 1246
  2.010 1163
  2.020 1239
  2.030 1190
  2.040 1122
  2.050 1260
  2.060 1197
  2.070 1318
  2.080 1232
  2.090 1197
  2.100 1163
  2.110 1190
  2.120 1246
  2.130 1225
  2.140 1142
  2.150 1211
  2.160 1176
  2.170 1170
  2.180 1170
  2.190 1183
  2.200 1267
  2.210 1076
  2.220 1310
  2.230 1149
  2.240 1211
  2.250 1204
  2.260 1225
  2.270 1218
  2.280 1149
  2.290 1211
  2.300 1156
  2.310 1096
  2.320 1204
  2.330 1190
  2.340 1253
  2.350 1267
  2.360 1197
  2.370 1211
  2.380 1253
  2.390 1246
  2.400 1122
  2.410 1149
  2.420 1190
  2.430 1211
  2.440 1197
  2.450 1260
  2.460 1116
  2.470 1156
  2.480 1183
  2.490 1170
  2.500 1176
  2.510 1156
  2.520 1176
  2.530 1076
  2.540 1170
  2.550 1183
  2.560 1232
  2.570 1239
  2.580 1190
  2.590 1116
  2.600 1176
  2.610 1183
  2.620 1204
  2.630 1204
  2.640 1122
  2.650 1170
  2.660 1129
  2.670 1204
  2.680 1197
  2.690 1082
  2.700 1197
  2.710 1089
  2.720 1197
  2.730 1082
  2.740 1225
  2.750 1170
  2.760 1129
  2.770 1156
  2.780 1129
  2.790 1156
  2.800 1136
  2.810 1176
  2.820 1239
  2.830 1183
  2.840 1142
  2.850 1218
  2.860 1122
  2.870 1170
  2.880 1142
  2.890 1116
  2.900 1176
  2.910 1122
  2.920 1129
  2.930 1136
  2.940 1142
  2.950 1136
  2.960 1116
  2.970 1109
  2.980 1204
  2.990 1190
  3.000 1176
  3.010 1232
  3.020 1170
  3.030 1116
  3.040 1142
  3.050 1197
  3.060 1156
  3.070 1136
  3.080 1129
  3.090 1163
  3.100 1082
  3.110 1129
  3.120 1142
  3.130 1109
  3.140 1102
  3.150 1116
  3.160 1176
  3.170 1116
  3.180 1156
  3.190 1082
  3.200 1197
  3.210 1109
  3.220 1163
  3.230 1129
  3.240 1069
  3.250 1142
  3.260 1076
  3.270 1069
  3.280 1163
  3.290 1082
  3.300 1170
  3.310 1037
  3.320 1163
  3.330 1183
  3.340 1183
  3.350 1069
  3.360 1156
  3.370 1232
  3.380 1142
  3.390 1232
  3.400 1332
  3.410 1576
  3.420 2144
  3.430 1190
  3.440 1129
  3.450 1096
  3.460 1129
  3.470 1109
  3.480 1096
  3.490 1005
  3.500 1024
  3.510 1082
  3.520 1024
  3.530 967
  3.540 1142
  3.550 1116
  3.560 1063
  3.570 1043
  3.580 1056
  3.590 1056
  3.600 1030
  3.610 1056
  3.620 1005
  3.630 1030
  3.640 1018
  3.650 992
  3.660 1109
  3.670 1037
  3.680 967
  3.690 942
  3.700 973
  3.710 1056
  3.720 973
  3.730 999
  3.740 955
  3.750 1018
  3.760 955
  3.770 1037
  3.780 1122
  3.790 980
  3.800 930
  3.810 961
  3.820 961
  3.830 986
  3.840 973
  3.850 973
  3.860 955
  3.870 1043
  3.880 973
  3.890 1005
  3.900 986
  3.910 936
  3.920 955
  3.930 1024
  3.940 967
  3.950 1076
  3.960 961
  3.970 961
  3.980 973
  3.990 888
  4.000 949
  4.010 980
  4.020 918
  4.030 894
  4.040 870
  4.050 912
  4.060 870
  4.070 912
  4.080 936
  4.090 900
  4.100 870
  4.110 882
  4.120 973
  4.130 853
  4.140 894
  4.150 847
  4.160 1018
  4.170 906
  4.180 906
  4.190 864
  4.200 853
  4.210 967
  4.220 912
  4.230 912
  4.240 986
  4.250 853
  4.260 870
  4.270 918
  4.280 906
  4.290 858
  4.300 853
  4.310 894
  4.320 924
  4.330 864
  4.340 906
  4.350 876
  4.360 894
  4.370 864
  4.380 864
  4.390 853
  4.400 918
  4.410 847
  4.420 936
  4.430 853
  4.440 835
  4.450 973
  4.460 847
  4.470 853
  4.480 930
  4.490 858
  4.500 906
  4.510 876
  4.520 812
  4.530 864
  4.540 858
  4.550 924
  4.560 858
  4.570 858
  4.580 841
  4.590 858
  4.600 906
  4.610 882
  4.620 812
  4.630 795
  4.640 912
  4.650 864
  4.660 807
  4.670 841
  4.680 906
  4.690 942
  4.700 894
  4.710 876
  4.720 847
  4.730 888
  4.740 847
  4.750 847
  4.760 829
  4.770 847
  4.780 924
  4.790 955
  4.800 1109
  4.810 1665
  4.820 3422
  4.830 8649
  4.840 17796
  4.850 3600
  4.860 1529
  4.870 1163
  4.880 1037
  4.890 1018
  4.900 961
  4.910 900
  4.920 835
  4.930 900
  4.940 870
  4.950 847
  4.960 942
  4.970 924
  4.980 835
  4.990 812
  5.000 858
  5.010 870
  5.020 841
  5.030 949
  5.040 853
  5.050 784
  5.060 841
  5.070 829
  5.080 835
  5.090 790
  5.100 864
  5.110 853
  5.120 818
  5.130 835
  5.140 835
  5.150 807
  5.160 876
  5.170 762
  5.180 829
  5.190 795
  5.200 864
  5.210 835
  5.220 829
  5.230 841
  5.240 853
  5.250 762
  5.260 784
  5.270 870
  5.280 847
  5.290 870
  5.300 864
  5.310 824
  5.320 858
  5.330 894
  5.340 853
  5.350 853
  5.360 829
  5.370 853
  5.380 858
  5.390 876
  5.400 751
  5.410 853
  5.420 847
  5.430 795
  5.440 841
  5.450 824
  5.460 858
  5.470 864
  5.480 835
  5.490 847
  5.500 807
  5.510 894
  5.520 795
  5.530 824
  5.540 824
  5.550 835
  5.560 858
  5.570 847
  5.580 864
  5.590 801
  5.600 818
  5.610 784
  5.620 835
  5.630 829
  5.640 801
  5.650 756
  5.660 829
  5.670 807
  5.680 824
  5.690 718
  5.700 807
  5.710 853
  5.720 847
  5.730 829
  5.740 767
  5.750 858
  5.760 818
  5.770 751
  5.780 801
  5.790 936
  5.800 858
  5.810 807
  5.820 812
  5.830 841
  5.840 853
  5.850 807
  5.860 795
  5.870 858
  5.880 942
  5.890 1089
  5.900 1568
  5.910 3982
  5.920 11946
  5.930 22290
  5.940 4160
  5.950 1823
  5.960 1232
  5.970 1069
  5.980 1037
  5.990 870
  6.000 906
  6.010 1005
  6.020 882
  6.030 882
  6.040 818
  6.050 835
  6.060 767
  6.070 778
  6.080 773
  6.090 767
  6.100 801
  6.110 784
  6.120 762
  6.130 807
  6.140 790
  6.150 812
  6.160 801
  6.170 713
  6.180 807
  6.190 784
  6.200 756
  6.210 784
  6.220 795
  6.230 841
  6.240 807
  6.250 767
  6.260 778
  6.270 773
  6.280 790
  6.290 818
  6.300 773
  6.310 778
  6.320 812
  6.330 724
  6.340 801
  6.350 790
  6.360 841
  6.370 773
  6.380 718
  6.390 773
  6.400 795
  6.410 829
  6.420 795
  6.430 713
  6.440 790
  6.450 824
  6.460 801
  6.470 767
  6.480 756
  6.490 756
  6.500 784
  6.510 847
  6.520 790
  6.530 734
  6.540 795
  6.550 751
  6.560 767
  6.570 740
  6.580 801
  6.590 756
  6.600 790
  6.610 767
  6.620 756
  6.630 858
  6.640 790
  6.650 773
  6.660 778
  6.670 795
  6.680 734
  6.690 784
  6.700 773
  6.710 801
  6.720 734
  6.730 756
  6.740 784
  6.750 784
  6.760 795
  6.770 778
  6.780 807
  6.790 784
  6.800 790
  6.810 724
  6.820 745
  6.830 762
  6.840 812
  6.850 900
  6.860 784
  6.870 790
  6.880 767
  6.890 835
  6.900 740
  6.910 807
  6.920 824
  6.930 812
  6.940 756
  6.950 812
  6.960 740
  6.970 666
  6.980 847
  6.990 801
  7.000 778
  7.010 724
  7.020 724
  7.030 812
  7.040 734
  7.050 790
  7.060 795
  7.070 835
  7.080 734
  7.090 773
  7.100 718
  7.110 790
  7.120 778
  7.130 841
  7.140 756
  7.150 756
  7.160 790
  7.170 778
  7.180 724
  7.190 784
  7.200 801
  7.210 801
  7.220 795
  7.230 818
  7.240 918
  7.250 692
  7.260 795
  7.270 818
  7.280 795
  7.290 829
  7.300 824
  7.310 795
  7.320 829
  7.330 784
  7.340 729
  7.350 812
  7.360 829
  7.370 762
  7.380 835
  7.390 812
  7.400 724
  7.410 829
  7.420 790
  7.430 812
  7.440 841
  7.450 801
  7.460 756
  7.470 778
  7.480 807
  7.490 767
  7.500 784
  7.510 784
  7.520 876
  7.530 762
  7.540 790
  7.550 858
  7.560 807
  7.570 767
  7.580 745
  7.590 767
  7.600 795
  7.610 790
  7.620 778
  7.630 835
  7.640 864
  7.650 1102
  7.660 1156
  7.670 858
  7.680 745
  7.690 864
  7.700 784
  7.710 778
  7.720 829
  7.730 784
  7.740 801
  7.750 841
  7.760 767
  7.770 807
  7.780 762
  7.790 778
  7.800 853
  7.810 762
  7.820 870
  7.830 767
  7.840 847
  7.850 824
  7.860 818
  7.870 847
  7.880 801
  7.890 888
  7.900 858
  7.910 807
  7.920 882
  7.930 801
  7.940 835
  7.950 745
  7.960 778
  7.970 835
  7.980 894
  7.990 835
  8.000 778
  8.010 756
  8.020 767
  8.030 812
  8.040 853
  8.050 841
  8.060 784
  8.070 745
  8.080 835
  8.090 751
  8.100 824
  8.110 835
  8.120 847
  8.130 858
  8.140 906
  8.150 870
  8.160 888
  8.170 841
  8.180 812
  8.190 853
  8.200 790
  8.210 812
  8.220 858
  8.230 882
  8.240 818
  8.250 745
  8.260 835
  8.270 858
  8.280 807
  8.290 912
  8.300 882
  8.310 894
  8.320 882
  8.330 858
  8.340 853
  8.350 894
  8.360 882
  8.370 912
  8.380 1260
  8.390 1756
  8.400 1156
  8.410 876
  8.420 906
  8.430 888
  8.440 986
  8.450 924
  8.460 900
  8.470 894
  8.480 949
  8.490 882
  8.500 824
  8.510 841
  8.520 906
  8.530 870
  8.540 818
  8.550 906
  8.560 894
  8.570 924
  8.580 906
  8.590 888
  8.600 955
  8.610 876
  8.620 841
  8.630 882
  8.640 930
  8.650 870
  8.660 882
  8.670 942
  8.680 900
  8.690 864
  8.700 900
  8.710 864
  8.720 918
  8.730 949
  8.740 955
  8.750 894
  8.760 936
  8.770 906
  8.780 924
  8.790 864
  8.800 853
  8.810 912
  8.820 906
  8.830 835
  8.840 835
  8.850 986
  8.860 986
  8.870 949
  8.880 918
  8.890 942
  8.900 942
  8.910 973
  8.920 980
  8.930 930
  8.940 949
  8.950 949
  8.960 942
  8.970 936
  8.980 1005
  8.990 973
  9.000 1024
  9.010 1050
  9.020 1197
  9.030 1376
  9.040 2088
  9.050 6561
  9.060 21727
  9.070 11621
  9.080 3170
  9.090 1781
  9.100 1452
  9.110 1246
  9.120 1089
  9.130 1050
  9.140 1056
  9.150 1024
  9.160 942
  9.170 1037
  9.180 1043
  9.190 992
  9.200 1056
  9.210 980
  9.220 986
  9.230 980
  9.240 955
  9.250 961
  9.260 1011
  9.270 1030
  9.280 1005
  9.290 961
  9.300 1037
  9.310 961
  9.320 961
  9.330 1063
  9.340 1024
  9.350 961
  9.360 955
  9.370 1069
  9.380 1011
  9.390 1024
  9.400 986
  9.410 1030
  9.420 980
  9.430 1063
  9.440 973
  9.450 1043
  9.460 1011
  9.470 1018
  9.480 936
  9.490 930
  9.500 1056
  9.510 1069
  9.520 912
  9.530 1043
  9.540 1089
  9.550 967
  9.560 1018
  9.570 1005
  9.580 1018
  9.590 1037
  9.600 1056
  9.610 1056
  9.620 1024
  9.630 1018
  9.640 1037
  9.650 1076
  9.660 1122
  9.670 1232
  9.680 2079
  9.690 3624
  9.700 1781
  9.710 1163
  9.720 1163
  9.730 1142
  9.740 1050
  9.750 1050
  9.760 1018
  9.770 1030
  9.780 986
  9.790 1069
  9.800 949
  9.810 1030
  9.820 1024
  9.830 1129
  9.840 1076
  9.850 1122
  9.860 1063
  9.870 1024
  9.880 1037
  9.890 1037
  9.900 967
  9.910 1043
  9.920 1024
  9.930 1050
  9.940 1076
  9.950 1136
  9.960 1089
  9.970 1069
  9.980 1096
  9.990 973
 10.000 1096
 10.010 1129
 10.020 1109
 10.030 1096
 10.040 1109
 10.050 1050
 10.060 1116
 10.070 1129
 10.080 1043
 10.090 1136
 10.100 1076
 10.110 1156
 10.120 1102
 10.130 1109
 10.140 1142
 10.150 1096
 10.160 1109
 10.170 1129
 10.180 1246
 10.190 1260
 10.200 1376
 10.210 1429
 10.220 1560
 10.230 1798
 10.240 2352
 10.250 3819
 10.260 10120
 10.270 46053
 10.280 112829
 10.290 33893
 10.300 8372
 10.310 4147
 10.320 2788
 10.330 2172
 10.340 1798
 10.350 1568
 10.360 1537
 10.370 1347
 10.380 1303
 10.390 1239
 10.400 1332
 10.410 1089
 10.420 1129
 10.430 1122
 10.440 1176
 10.450 1089
 10.460 1156
 10.470 1102
 10.480 1156
 10.490 1156
 10.500 1109
 10.510 1102
 10.520 1069
 10.530 1082
 10.540 1050
 10.550 1109
 10.560 1063
 10.570 1183
 10.580 1043
 10.590 1142
 10.600 1043
 10.610 1149
 10.620 1109
 10.630 1050
 10.640 1076
 10.650 1018
 10.660 1142
 10.670 1102
 10.680 1225
 10.690 1211
 10.700 1156
 10.710 1116
 10.720 992
 10.730 1018
 10.740 1069
 10.750 1096
 10.760 1122
 10.770 1102
 10.780 1129
 10.790 1011
 10.800 1136
 10.810 1018
 10.820 1122
 10.830 1122
 10.840 1142
 10.850 1109
 10.860 1076
 10.870 1030
 10.880 1043
 10.890 1050
 10.900 1076
 10.910 1129
 10.920 1030
 10.930 1011
 10.940 1109
 10.950 1149
 10.960 1024
 10.970 1076
 10.980 1037
 10.990 973
 11.000 1024
 11.010 1102
 11.020 1102
 11.030 1056
 11.040 1089
 11.050 1109
 11.060 1011
 11.070 999
 11.080 1102
 11.090 1082
 11.100 986
 11.110 1069
 11.120 1082
 11.130 1142
 11.140 1109
 11.150 1136
 11.160 1005
 11.170 1109
 11.180 992
 11.190 1043
 11.200 1089
 11.210 1096
 11.220 1050
 11.230 1116
 11.240 1069
 11.250 1096
 11.260 1102
 11.270 1122
 11.280 1082
 11.290 1163
 11.300 1096
 11.310 1176
 11.320 1239
 11.330 1318
 11.340 1681
 11.350 2927
 11.360 11236
 11.370 21697
 11.380 5898
 11.390 2304
 11.400 1584
 11.410 1429
 11.420 1354
 11.430 1282
 11.440 1136
 11.450 1225
 11.460 1069
 11.470 1156
 11.480 1089
 11.490 1024
 11.500 1082
 11.510 1037
 11.520 1069
 11.530 1050
 11.540 1102
 11.550 1069
 11.560 1129
 11.570 1136
 11.580 1082
 11.590 1102
 11.600 1176
 11.610 1170
 11.620 1076
 11.630 1102
 11.640 1069
 11.650 1082
 11.660 1076
 11.670 1063
 11.680 1102
 11.690 1163
 11.700 1102
 11.710 1024
 11.720 1037
 11.730 1102
 11.740 1109
 11.750 1076
 11.760 1156
 11.770 1076
 11.780 1102
 11.790 1096
 11.800 1096
 11.810 1163
 11.820 1197
 11.830 1282
 11.840 1444
 11.850 1823
 11.860 3856
 11.870 13995
 11.880 16538
 11.890 4264
 11.900 1945
 11.910 1521
 11.920 1362
 11.930 1391
 11.940 1190
 11.950 1102
 11.960 1156
 11.970 1156
 11.980 1082
 11.990 1096
 12.000 1109
 12.010 1239
 12.020 1136
 12.030 1089
 12.040 1122
 12.050 1050
 12.060 1163
 12.070 1102
 12.080 1163
 12.090 1109
 12.100 1102
 12.110 1063
 12.120 1129
 12.130 1096
 12.140 1156
 12.150 1116
 12.160 1082
 12.170 1037
 12.180 1102
 12.190 1156
 12.200 1056
 12.210 1063
 12.220 1082
 12.230 1069
 12.240 1129
 12.250 1170
 12.260 1069
 12.270 1096
 12.280 1102
 12.290 1076
 12.300 1136
 12.310 1076
 12.320 1225
 12.330 1225
 12.340 1391
 12.350 2218
 12.360 4624
 12.370 3434
 12.380 1552
 12.390 1274
 12.400 1204
 12.410 1082
 12.420 1149
 12.430 1149
 12.440 1170
 12.450 1129
 12.460 1122
 12.470 1204
 12.480 1109
 12.490 1136
 12.500 1170
 12.510 1096
 12.520 1076
 12.530 1204
 12.540 1136
 12.550 1082
 12.560 1170
 12.570 1149
 12.580 1109
 12.590 1149
 12.600 1056
 12.610 1122
 12.620 1129
 12.630 1183
 12.640 1076
 12.650 1136
 12.660 1030
 12.670 1197
 12.680 1122
 12.690 1136
 12.700 1102
 12.710 1102
 12.720 1102
 12.730 1136
 12.740 1149
 12.750 1076
 12.760 1037
 12.770 1122
 12.780 1136
 12.790 1037
 12.800 1109
 12.810 1232
 12.820 1056
 12.830 1122
 12.840 1082
 12.850 1109
 12.860 1156
 12.870 1142
 12.880 1246
 12.890 1163
 12.900 1005
 12.910 1142
 12.920 1142
 12.930 1043
 12.940 1211
 12.950 1050
 12.960 1069
 12.970 1129
 12.980 1170
 12.990 1176
 13.000 1122
 13.010 1116
 13.020 1069
 13.030 1076
 13.040 1109
 13.050 1096
 13.060 1204
 13.070 1089
 13.080 1149
 13.090 1163
 13.100 1156
 13.110 1102
 13.120 1102
 13.130 1116
 13.140 1089
 13.150 1129
 13.160 1102
 13.170 1253
 13.180 1163
 13.190 1122
 13.200 1142
 13.210 1163
 13.220 1089
 13.230 1170
 13.240 1232
 13.250 1122
 13.260 1274
 13.270 1592
 13.280 3125
 13.290 2632
 13.300 1436
 13.310 1211
 13.320 1096
 13.330 1156
 13.340 1170
 13.350 1109
 13.360 1232
 13.370 1129
 13.380 1170
 13.390 1149
 13.400 1176
 13.410 1156
 13.420 1149
 13.430 1096
 13.440 1149
 13.450 1102
 13.460 1122
 13.470 1190
 13.480 1163
 13.490 1136
 13.500 1102
 13.510 1122
 13.520 1204
 13.530 1163
 13.540 1232
 13.550 1102
 13.560 1142
 13.570 1190
 13.580 1176
 13.590 1190
 13.600 1211
 13.610 1102
 13.620 1142
 13.630 1102
 13.640 1069
 13.650 1183
 13.660 1096
 13.670 1204
 13.680 1129
 13.690 1218
 13.700 1340
 13.710 1665
 13.720 3147
 13.730 2190
 13.740 1414
 13.750 1354
 13.760 1232
 13.770 1232
 13.780 1218
 13.790 1183
 13.800 1176
 13.810 1116
 13.820 1149
 13.830 1129
 13.840 1260
 13.850 1122
 13.860 1156
 13.870 1142
 13.880 1225
 13.890 1176
 13.900 1082
 13.910 1156
 13.920 1163
 13.930 1136
 13.940 1197
 13.950 1109
 13.960 1089
 13.970 1190
 13.980 1142
 13.990 1170
 14.000 1163
 14.010 1149
 14.020 1149
 14.030 1218
 14.040 1204
 14.050 1156
 14.060 1176
 14.070 1149
 14.080 1274
 14.090 1253
 14.100 1303
 14.110 1332
 14.120 1552
 14.130 2237
 14.140 6675
 14.150 7903
 14.160 2905
 14.170 1648
 14.180 1391
 14.190 1253
 14.200 1246
 14.210 1204
 14.220 1211
 14.230 1176
 14.240 1136
 14.250 1149
 14.260 1170
 14.270 1082
 14.280 1218
 14.290 1211
 14.300 1225
 14.310 1096
 14.320 1116
 14.330 1211
 14.340 1183
 14.350 1163
 14.360 1142
 14.370 1303
 14.380 1211
 14.390 1149
 14.400 1102
 14.410 1176
 14.420 1142
 14.430 1197
 14.440 1239
 14.450 1163
 14.460 1122
 14.470 1204
 14.480 1218
 14.490 1253
 14.500 1183
 14.510 1176
 14.520 1310
 14.530 1665
 14.540 2540
 14.550 8630
 14.560 16256
 14.570 5991
 14.580 2560
 14.590 1608
 14.600 1475
 14.610 1354
 14.620 1391
 14.630 1310
 14.640 1211
 14.650 1239
 14.660 1156
 14.670 1170
 14.680 1197
 14.690 1197
 14.700 1225
 14.710 1122
 14.720 1156
 14.730 1163
 14.740 1136
 14.750 1156
 14.760 1156
 14.770 1129
 14.780 1190
 14.790 1122
 14.800 1211
 14.810 1239
 14.820 1142
 14.830 1122
 14.840 1183
 14.850 1190
 14.860 1156
 14.870 1211
 14.880 1211
 14.890 1190
 14.900 1204
 14.910 1303
 14.920 1354
 14.930 1608
 14.940 2490
 14.950 7604
 14.960 17187
 14.970 6972
 14.980 2694
 14.990 1806
 15.000 1552
 15.010 1429
 15.020 1225
 15.030 1325
 15.040 1225
 15.050 1274
 15.060 1239
 15.070 1197
 15.080 1190
 15.090 1156
 15.100 1211
 15.110 1190
 15.120 1260
 15.130 1204
 15.140 1204
 15.150 1211
 15.160 1170
 15.170 1204
 15.180 1163
 15.190 1142
 15.200 1149
 15.210 1197
 15.220 1232
 15.230 1190
 15.240 1197
 15.250 1109
 15.260 1156
 15.270 1211
 15.280 1197
 15.290 1211
 15.300 1246
 15.310 1267
 15.320 1303
 15.330 1772
 15.340 3944
 15.350 8649
 15.360 4679
 15.370 2052
 15.380 1505
 15.390 1332
 15.400 1239
 15.410 1211
 15.420 1183
 15.430 1156
 15.440 1096
 15.450 1211
 15.460 1176
 15.470 1156
 15.480 1149
 15.490 1116
 15.500 1089
 15.510 1129
 15.520 1170
 15.530 1102
 15.540 1096
 15.550 1109
 15.560 1142
 15.570 1129
 15.580 1129
 15.590 1089
 15.600 1142
 15.610 1122
 15.620 1116
 15.630 1122
 15.640 1129
 15.650 1156
 15.660 1136
 15.670 1102
 15.680 1136
 15.690 1136
 15.700 1156
 15.710 1156
 15.720 1722
 15.730 3226
 15.740 2401
 15.750 1332
 15.760 1170
 15.770 1082
 15.780 1089
 15.790 1096
 15.800 1037
 15.810 1069
 15.820 1142
 15.830 1069
 15.840 1129
 15.850 1102
 15.860 1089
 15.870 1102
 15.880 1122
 15.890 1116
 15.900 1030
 15.910 1082
 15.920 1050
 15.930 1082
 15.940 1089
 15.950 1069
 15.960 1142
 15.970 1170
 15.980 1089
 15.990 1024
 16.000 1082
 16.010 1030
 16.020 1056
 16.030 1030
 16.040 999
 16.050 1050
 16.060 1102
 16.070 1142
 16.080 1163
 16.090 1722
 16.100 3552
 16.110 3721
 16.120 1764
 16.130 1211
 16.140 1170
 16.150 1069
 16.160 1082
 16.170 1102
 16.180 1122
 16.190 1063
 16.200 1102
 16.210 1116
 16.220 1136
 16.230 1253
 16.240 1303
 16.250 1482
 16.260 1384
 16.270 1129
 16.280 1082
 16.290 1089
 16.300 1089
 16.310 1056
 16.320 1056
 16.330 1011
 16.340 1043
 16.350 1005
 16.360 1018
 16.370 1050
 16.380 1050
 16.390 1024
 16.400 1030
 16.410 1050
 16.420 1011
 16.430 1011
 16.440 1102
 16.450 1225
 16.460 2079
 16.470 3399
 16.480 1989
 16.490 1325
 16.500 1109
 16.510 1102
 16.520 1037
 16.530 1030
 16.540 1063
 16.550 1096
 16.560 986
 16.570 1037
 16.580 1011
 16.590 1043
 16.600 1050
 16.610 1018
 16.620 1037
 16.630 1037
 16.640 1050
 16.650 961
 16.660 967
 16.670 999
 16.680 1011
 16.690 992
 16.700 1005
 16.710 967
 16.720 973
 16.730 1037
 16.740 1018
 16.750 999
 16.760 1018
 16.770 999
 16.780 992
 16.790 1043
 16.800 1056
 16.810 1129
 16.820 1892
 16.830 2200
 16.840 1310
 16.850 1043
 16.860 1024
 16.870 1005
 16.880 1011
 16.890 986
 16.900 999
 16.910 986
 16.920 1030
 16.930 980
 16.940 1024
 16.950 992
 16.960 918
 16.970 955
 16.980 999
 16.990 992
 17.000 1011
 17.010 992
 17.020 967
 17.030 924
 17.040 967
 17.050 999
 17.060 986
 17.070 1037
 17.080 1005
 17.090 942
 17.100 1063
 17.110 973
 17.120 1005
 17.130 1056
 17.140 1024
 17.150 1043
 17.160 1475
 17.170 2948
 17.180 3411
 17.190 1714
 17.200 1204
 17.210 1082
 17.220 1030
 17.230 1030
 17.240 961
 17.250 1018
